dt: 0.01 CellNx: 12 b: 5.26 noParticles: 2048
Kinetic energy     Potential energy   Total energy   Temperature         Pressure   Average displacement
2526.18            13832.9               16359.1         0.822325         4.33243         0.347514
2260.86            13566.3               15827.1         0.735958         4.91958         0.671969
1842.68            13143.7               14986.4         0.59983         5.85015         0.949886
1357.64            12651.9               14009.6         0.441941         6.91288         1.16519
940.969            12232.7               13173.6         0.306305         7.81437         1.31716
713.858            12001.2               12715.1         0.232376         8.32318         1.42447
706.24            11994.3               12700.6         0.229896         8.37227         1.51722
845.731            12139.4               12985.1         0.275303         8.10565         1.62153
1024.85            12323.1               13347.9         0.333611         7.71568         1.74937
1165.76            12464.8               13630.6         0.379478         7.40512         1.89959
1237.54            12535.4               13772.9         0.402846         7.24807         2.064
1246.77            12541.3               13788.1         0.405849         7.21865         2.23324
1221.48            12511.8               13733.3         0.397618         7.27617         2.40077
1195.89            12482.4               13678.3         0.389287         7.35634         2.56457
1196.21            12480               13676.2         0.38939         7.3921         2.72687
1233.1            12516.1               13749.2         0.401401         7.3228         2.89217
1301.19            12584.8               13886         0.423566         7.18948         3.06506
1383.72            12668.6               14052.4         0.450428         7.02459         3.24841
1460.44            12744.7               14205.2         0.475403         6.85787         3.44255
1513.39            12796.4               14309.8         0.49264         6.73332         3.64545
1532.66            12813.9               14346.6         0.498914         6.68264         3.85317
1518.71            12799.6               14318.3         0.494372         6.6864         4.06123
1479.93            12758.3               14238.3         0.481749         6.76602         4.26571
1430.96            12706.3               14137.3         0.465807         6.87364         4.46415
1387.84            12661.8               14049.6         0.451769         6.95645         4.65622
1360.87            12633.3               13994.1         0.442991         7.01807         4.84352
1352.18            12624.9               13977.1         0.440163         7.04646         5.02847
1357.9            12633.1               13991         0.442024         7.05519         5.21351
1371.48            12646.8               14018.3         0.446444         7.02818         5.4004
1386.31            12662.3               14048.6         0.451274         6.99531         5.59004
1395.95            12673.5               14069.5         0.454412         6.97772         5.78217
1394.77            12672.7               14067.5         0.454027         6.96414         5.97538
1381.72            12657.8               14039.5         0.44978         6.98333         6.16737
1361.75            12637.3               13999         0.443277         7.02304         6.35615
1342.83            12617.8               13960.7         0.437118         7.05931         6.54066
1332.23            12606.2               13938.4         0.43367         7.10379         6.72132
1332.79            12606.3               13939.1         0.43385         7.10269         6.89976
1342.13            12615.4               13957.6         0.436892         7.08556         7.07803
1355.44            12628.9               13984.3         0.441224         7.05354         7.25806
1367.91            12640.9               14008.8         0.445284         7.0157         7.44102
1376.42            12649.2               14025.6         0.448053         6.9843         7.62719
1380.28            12653               14033.2         0.449311         6.98517         7.81591
1381.64            12654.7               14036.4         0.449753         6.98477         8.00607
1383.48            12655.8               14039.3         0.450352         6.99126         8.19674
1388.06            12659               14047.1         0.451844         7.00161         8.38746
1395.77            12665.7               14061.5         0.454351         6.98208         8.57829
1404.64            12674.4               14079         0.457239         6.96114         8.76951
1412.58            12680.6               14093.1         0.459823         6.9429         8.96138
1418.8            12686.6               14105.4         0.46185         6.91271         9.15396
1422.7            12691.1               14113.8         0.463117         6.89289         9.34716
1423.62            12691.9               14115.5         0.463417         6.90359         9.54046
1421.41            12689.4               14110.8         0.462699         6.91014         9.73338
1415.68            12683.4               14099.1         0.460833         6.93756         9.92555
1405.71            12672.9               14078.6         0.457588         6.95123         10.1166
1391.1            12658.9               14050         0.452832         6.98497         10.3061
1374.13            12643               14017.2         0.447308         7.03132         10.4933
1359.15            12628.2               13987.3         0.442433         7.05245         10.678
1349.87            12616.8               13966.7         0.439411         7.07516         10.8607
1347.61            12614.5               13962.1         0.438676         7.08726         11.0424
1351.26            12617.6               13968.8         0.439862         7.06503         11.224
1358.82            12624.9               13983.7         0.442323         7.06145         11.4062
1368.55            12633.2               14001.8         0.445493         7.05868         11.5896
1378.11            12643.3               14021.4         0.448605         7.04222         11.774
1384.01            12648.1               14032.1         0.450524         7.04038         11.9589
1383.84            12647.8               14031.6         0.450468         7.02869         12.1434
1379.14            12641.8               14020.9         0.448939         7.04378         12.3263
1375.27            12638.2               14013.5         0.447679         7.05616         12.5076
1377.52            12640.7               14018.2         0.44841         7.05508         12.6884
1386.38            12651.7               14038.1         0.451294         7.0352         12.8706
1397.62            12661.5               14059.1         0.454953         6.9922         13.0556
1406.79            12670.8               14077.6         0.457939         6.95985         13.2437
1410.95            12674.2               14085.1         0.459295         6.94897         13.4342
1409.87            12673.3               14083.1         0.458942         6.95189         13.6254
1405.29            12668.8               14074.1         0.457451         6.96665         13.8159
1398.97            12662.2               14061.2         0.455393         6.98257         14.0048
1392.39            12655.3               14047.7         0.453253         7.00268         14.1915
1386.32            12647.6               14033.9         0.451275         7.02641         14.3763
1381.26            12641.2               14022.4         0.44963         7.0367         14.5599
1378.13            12638               14016.1         0.448611         7.04853         14.7433
1376.7            12636.4               14013.1         0.448144         7.05921         14.9274
1375.58            12634.2               14009.8         0.447781         7.06875         15.1125
1374.25            12632.4               14006.6         0.447347         7.06908         15.2982
1374.13            12631.8               14006         0.447308         7.07668         15.4836
1377.26            12634.6               14011.9         0.448325         7.06828         15.6685
1384.28            12641.1               14025.4         0.450613         7.05747         15.8533
1393.5            12649.7               14043.2         0.453615         7.02576         16.0386
1400.83            12657.6               14058.4         0.456         7.00544         16.2249
1402.04            12658.3               14060.3         0.456393         7.01457         16.412
1396.19            12651.7               14047.9         0.454489         7.02677         16.5991
1387.11            12641.2               14028.4         0.451535         7.05061         16.7851
1380.09            12633               14013.1         0.449248         7.06917         16.9699
1377.94            12630.7               14008.7         0.448548         7.09013         17.1539
1380.18            12632.7               14012.8         0.449276         7.10748         17.3381
1383.68            12636.2               14019.9         0.450418         7.10957         17.523
1385.47            12637.8               14023.2         0.451         7.09483         17.709
1385.08            12636.6               14021.7         0.450874         7.0903         17.8957
1384.94            12636.2               14021.1         0.450828         7.08682         18.0828
1387.29            12637.8               14025.1         0.451591         7.06115         18.2702
1392.01            12644.4               14036.4         0.453129         7.03871         18.4575
1396.67            12648.7               14045.4         0.454645         7.0283         18.6445
1399.46            12650.7               14050.2         0.455553         7.03026         18.8307
1400.48            12650.2               14050.7         0.455885         7.03059         19.016
1399.89            12649               14048.9         0.455693         7.03889         19.2007
1397.29            12645.3               14042.5         0.454846         7.04047         19.3855
1393.43            12642.6               14036         0.453591         7.05078         19.5705
1391.38            12640.5               14031.9         0.452922         7.04527         19.7558
1394.12            12642               14036.1         0.453815         7.04673         19.9417
1401.64            12650.1               14051.8         0.456263         7.02993         20.1289
1410.88            12662.4               14073.3         0.459271         7.00438         20.3175
1416.85            12668.3               14085.2         0.461214         6.98325         20.5078
1415.66            12665.8               14081.5         0.460827         6.97821         20.6988
1406.71            12656               14062.7         0.457915         6.97745         20.8897
1392.21            12642               14034.3         0.453194         7.01576         21.0795
1377.33            12626.3               14003.6         0.448351         7.06174         21.2678
1367.38            12615.6               13982.9         0.44511         7.08796         21.4547
1365.44            12613.4               13978.8         0.444479         7.09563         21.6413
1370.95            12618.9               13989.9         0.446273         7.08359         21.8283
1380.06            12627               14007         0.449238         7.0802         22.0164
1388.79            12635.7               14024.5         0.45208         7.06411         22.2049
1395.71            12641               14036.7         0.454333         7.04875         22.3932
1400.07            12645.1               14045.2         0.455752         7.05133         22.5808
1401.16            12644.6               14045.8         0.456108         7.04442         22.7674
1399.33            12642.7               14042         0.455513         7.04207         22.9532
1396.05            12637.8               14033.8         0.454442         7.04695         23.1386
1393.2            12634.1               14027.3         0.453516         7.05422         23.3243
1391.97            12632.2               14024.2         0.453115         7.05026         23.5108
1393.33            12632.1               14025.5         0.453558         7.04749         23.6984
1398.2            12637.6               14035.8         0.455144         7.04129         23.8872
1406.14            12645.8               14051.9         0.457727         7.02669         24.0774
1414.11            12653.8               14068         0.460323         7.02429         24.269
1418.73            12656.9               14075.6         0.461825         6.99623         24.4612
1419.16            12657.4               14076.5         0.461967         6.97965         24.6534
1416.74            12656.3               14073.1         0.461178         6.98863         24.8448
1413.01            12653.1               14066.2         0.459963         6.98021         25.0352
1408.08            12649.7               14057.7         0.458358         6.98846         25.225
1400.21            12642.3               14042.5         0.455798         7.00668         25.4142
1388.85            12629.7               14018.5         0.452099         7.03362         25.6026
1377.12            12616               13993.1         0.448282         7.06286         25.7903
1370.37            12609.6               13980         0.446085         7.07795         25.9773
1371.88            12610.9               13982.8         0.446576         7.09953         26.1644
1381.1            12619.5               14000.6         0.449578         7.0843         26.3524
1394.2            12632               14026.2         0.45384         7.05853         26.5418
1406.36            12642.9               14049.3         0.457798         7.02793         26.7326
1414            12650.8               14064.8         0.460287         7.01887         26.9242
1416.05            12651.1               14067.2         0.460955         7.00654         27.1158
1413.8            12646.6               14060.4         0.460221         7.00888         27.3071
1409.13            12642.1               14051.2         0.458702         7.02984         27.4978
1403.73            12637.3               14041         0.456945         7.02064         27.6878
1399.64            12632.4               14032.1         0.455611         7.04017         27.877
1399.19            12630.7               14029.9         0.455466         7.03866         28.0657
1403.89            12635.5               14039.4         0.456994         7.03332         28.2544
1412.43            12643.3               14055.8         0.459775         7.02763         28.444
1420.48            12651.5               14071.9         0.462395         7.02627         28.6349
1421.98            12652.6               14074.6         0.462884         7.01661         28.8269
1413.08            12643               14056.1         0.459987         7.03999         29.0193
1396.04            12625.4               14021.5         0.454441         7.08227         29.2107
1378.22            12605.6               13983.8         0.448638         7.12418         29.4007
1366.27            12591.5               13957.8         0.444751         7.16146         29.5897
1363.23            12588.9               13952.2         0.44376         7.1727         29.7783
1368.68            12596               13964.7         0.445535         7.15196         29.9673
1378.47            12606.3               13984.8         0.448722         7.1425         30.1571
1387.91            12614.2               14002.1         0.451794         7.13574         30.3477
1394.99            12619.9               14014.9         0.454097         7.12451         30.5387
1401.05            12626.4               14027.5         0.45607         7.1127         30.7298
1407.48            12632.4               14039.8         0.458163         7.10172         30.9212
1413.7            12639               14052.7         0.460187         7.06202         31.1131
1417.15            12641.2               14058.4         0.461312         7.05117         31.3052
1414.85            12639               14053.9         0.460563         7.05438         31.4972
1407.39            12630.9               14038.3         0.458133         7.07535         31.6885
1399.8            12622.3               14022.1         0.455664         7.09001         31.879
1396.17            12618.5               14014.6         0.454481         7.10571         32.069
1396.43            12618.9               14015.3         0.454566         7.1005         32.2591
1398.33            12621.3               14019.6         0.455184         7.09558         32.4495
1400.04            12622.1               14022.1         0.455743         7.1068         32.6404
1401.58            12623.8               14025.3         0.456245         7.10948         32.8317
1403.82            12625.7               14029.5         0.456973         7.10483         33.0234
1406.64            12629.3               14036         0.45789         7.09016         33.2156
1408.86            12630.5               14039.4         0.458612         7.07204         33.408
1410.51            12632.4               14042.9         0.459149         7.06448         33.6003
1411.88            12633.8               14045.7         0.459595         7.07787         33.7924
1412.36            12633.3               14045.7         0.459752         7.07378         33.9842
1411.76            12631.9               14043.7         0.459556         7.08179         34.1758
1410.53            12631.2               14041.7         0.459157         7.08336         34.3672
1410.48            12631.4               14041.9         0.459139         7.0799         34.5584
1412.73            12632.2               14044.9         0.459872         7.07516         34.75
1415.95            12634.2               14050.1         0.460923         7.06603         34.9422
1417.88            12636.7               14054.6         0.461549         7.07258         35.1352
1416.19            12635               14051.2         0.460998         7.06709         35.3285
1410.53            12628.1               14038.6         0.459157         7.09299         35.5215
1403.13            12620.8               14023.9         0.456747         7.10053         35.7137
1396.8            12613.8               14010.6         0.454687         7.0995         35.9053
1394.43            12610               14004.4         0.453915         7.1046         36.097
1397.83            12613               14010.8         0.455021         7.10846         36.2895
1407.89            12623.5               14031.4         0.458299         7.08895         36.4836
1422.87            12637.7               14060.6         0.463173         7.05175         36.6797
1437.52            12653.2               14090.7         0.467942         7.02413         36.8774
1445.82            12661.4               14107.2         0.470645         7.00892         37.0757
1444.86            12659               14103.9         0.470334         7.00978         37.2734
1437.1            12649.7               14086.8         0.467805         7.03158         37.4692
1428.11            12639.7               14067.8         0.464881         7.04314         37.6632
1422.29            12633.3               14055.6         0.462987         7.05442         37.8559
1419.46            12630.7               14050.1         0.462063         7.07003         38.0484
1416.3            12627.9               14044.2         0.461034         7.07999         38.2408
1411.06            12622.3               14033.3         0.45933         7.09353         38.4328
1404.19            12615.1               14019.3         0.457094         7.11554         38.6238
1397.87            12609.1               14007         0.455036         7.1346         38.8135
1393.95            12605.4               13999.3         0.453761         7.14292         39.002
1392.65            12603.6               13996.3         0.453336         7.15382         39.1894
1393.96            12604.1               13998         0.453764         7.1557         39.376
1397.73            12606.7               14004.4         0.45499         7.13765         39.5623
1402.43            12611.1               14013.5         0.456519         7.13724         39.7488
1405.88            12615.4               14021.3         0.457642         7.12311         39.9362
1407            12618.2               14025.2         0.458009         7.1216         40.1249
1406.02            12617.2               14023.2         0.457689         7.12358         40.3149
1403.13            12615.9               14019         0.456747         7.14497         40.5063
1398.06            12609               14007.1         0.455098         7.17784         40.6984
1391.73            12601.1               13992.8         0.453038         7.2035         40.8905
1386.69            12595.1               13981.8         0.451396         7.20478         41.0821
1385.2            12592               13977.2         0.45091         7.20066         41.2732
1388.64            12593.7               13982.4         0.452033         7.19641         41.4641
1397.54            12602               13999.5         0.45493         7.16422         41.655
1409.59            12614.3               14023.9         0.45885         7.13174         41.8467
1420.82            12625.4               14046.2         0.462508         7.11446         42.0392
1429.29            12633.2               14062.5         0.465263         7.10503         42.2325
1434.44            12638.4               14072.9         0.466939         7.08626         42.4264
1436.2            12639.8               14076         0.467515         7.07903         42.6207
1435.06            12637.9               14073         0.46714         7.07895         42.8149
1432.29            12634.3               14066.6         0.466241         7.06035         43.0088
1430.27            12633               14063.2         0.465584         7.04846         43.2022
1430.98            12633.2               14064.2         0.465814         7.04915         43.3957
1433.95            12636.2               14070.2         0.466782         7.03874         43.5899
1435.99            12637.9               14073.9         0.467446         7.04613         43.7849
1433.31            12635.3               14068.6         0.466572         7.06631         43.9803
1424.35            12626.8               14051.2         0.463656         7.08996         44.1751
1410.12            12612               14022.1         0.459024         7.1235         44.3684
1393.41            12595.1               13988.5         0.453583         7.15243         44.5595
1379.17            12580               13959.2         0.448947         7.19119         44.7482
1372.4            12573.3               13945.7         0.446744         7.21128         44.9352
1374.07            12575               13949.1         0.447289         7.19839         45.1217
1380.54            12582.3               13962.8         0.449396         7.18449         45.3088
1386.91            12589.3               13976.2         0.451467         7.16908         45.4969
1390.55            12594               13984.5         0.452652         7.16111         45.6855
1392.33            12593               13985.3         0.453232         7.16058         45.8741
1395.67            12595.6               13991.3         0.454318         7.15324         46.0624
1402.77            12603.3               14006.1         0.45663         7.13276         46.2508
1413.01            12613               14026         0.459966         7.11168         46.44
1424.53            12625               14049.6         0.463713         7.08392         46.6307
1434.75            12634.7               14069.5         0.467041         7.06653         46.8231
1441.41            12640.8               14082.2         0.469209         7.04057         47.0171
1443.6            12642.7               14086.3         0.469923         7.03783         47.2122
1442.63            12640.5               14083.1         0.469605         7.0601         47.4078
1440.58            12637               14077.5         0.46894         7.06643         47.6037
1438.37            12633.4               14071.8         0.468218         7.08516         47.7998
1435.84            12629.7               14065.5         0.467394         7.1023         47.9962
1432.08            12626.4               14058.4         0.466173         7.10985         48.1931
1426.06            12620.9               14047         0.464211         7.12066         48.3902
1418.36            12613               14031.4         0.461704         7.13281         48.587
1411.66            12606.2               14017.8         0.459524         7.1362         48.7832
1407.75            12600.9               14008.6         0.458252         7.14525         48.9786
1406.27            12598.7               14005         0.457772         7.14336         49.1733
1405.78            12598.4               14004.2         0.457611         7.13547         49.367
1406.21            12600.5               14006.7         0.457749         7.14076         49.5597
1409.55            12604.7               14014.3         0.458838         7.13002         49.7515
1416.51            12610.7               14027.2         0.461103         7.11638         49.9434
1425.1            12617.4               14042.5         0.4639         7.11459         50.1362
1431.54            12624.5               14056         0.465996         7.10738         50.3305
1432.96            12629               14062         0.466458         7.08903         50.5261
1428.84            12623.9               14052.7         0.465118         7.09953         50.7225
1421.63            12616.5               14038.1         0.46277         7.11026         50.9188
1414.25            12608.2               14022.4         0.460368         7.1261         51.1144
1407.95            12601.5               14009.5         0.458318         7.12295         51.3088
1404.67            12597.6               14002.3         0.457249         7.12295         51.5018
1406.29            12599.1               14005.4         0.457776         7.11893         51.6936
1411.92            12603.2               14015.1         0.459611         7.10721         51.8849
1419.43            12608.1               14027.5         0.462055         7.11112         52.0762
1426.61            12615.3               14042         0.464393         7.10633         52.268
1432.35            12621.5               14053.8         0.466259         7.09594         52.4601
1437.86            12626               14063.9         0.468053         7.10338         52.6528
1442.76            12630.1               14072.9         0.469647         7.09228         52.8464
1444.62            12630.2               14074.8         0.470256         7.10099         53.0411
1442.14            12627.8               14069.9         0.469446         7.08238         53.2365
1436.7            12621.7               14058.4         0.467677         7.09242         53.4318
1430.58            12613.4               14044         0.465684         7.11479         53.6265
1424.28            12606.7               14031         0.463634         7.13581         53.8203
1416.66            12598.3               14014.9         0.461153         7.16052         54.0132
1407.67            12589.4               13997.1         0.458227         7.17876         54.2049
1399.11            12581.8               13980.9         0.45544         7.20213         54.3953
1393.8            12576               13969.8         0.45371         7.2177         54.5849
1393.48            12575.1               13968.6         0.453606         7.22184         54.7745
1397.6            12578.5               13976.1         0.454949         7.21389         54.9647
1404.36            12584.9               13989.3         0.45715         7.17697         55.1558
1412.68            12592.3               14005         0.459857         7.15223         55.3478
1422.4            12600.3               14022.7         0.463021         7.13705         55.5406
1431.98            12610.9               14042.8         0.46614         7.11842         55.7346
1438.89            12618               14056.9         0.46839         7.09223         55.9298
1441.58            12619.8               14061.4         0.469265         7.10171         56.1259
1440.41            12616.1               14056.5         0.468883         7.11429         56.3222
1436.31            12612.6               14048.9         0.467547         7.11959         56.5182
1430            12607.3               14037.3         0.465493         7.13053         56.7131
1421.98            12598.6               14020.6         0.462886         7.13989         56.9066
1413.48            12590.6               14004.1         0.460117         7.16608         57.0981
1407.53            12585               13992.6         0.458181         7.17017         57.2878
1406.88            12584.4               13991.3         0.45797         7.15833         57.4761
1411.06            12589.3               14000.4         0.459331         7.14316         57.6643
1416.32            12593.8               14010.1         0.461043         7.13475         57.8529
1419.58            12595.7               14015.3         0.462102         7.13722         58.0421
1420.38            12596.2               14016.6         0.462365         7.14343         58.2319
1421.27            12596.2               14017.5         0.462654         7.14478         58.4222
1424.57            12598.9               14023.5         0.463729         7.13993         58.6137
1429.98            12604.9               14034.9         0.465487         7.12484         58.8068
1435.27            12608.6               14043.8         0.46721         7.11434         59.0017
1437.79            12610.8               14048.6         0.46803         7.11675         59.1979
1436.41            12607.5               14043.9         0.467583         7.14321         59.3948
1431.3            12602.4               14033.7         0.465918         7.1409         59.5915
1424.83            12595.2               14020.1         0.46381         7.14522         59.7873
1421.39            12591.3               14012.7         0.462693         7.16124         59.9821
1423.51            12593.1               14016.6         0.463382         7.15349         60.1763
1430.83            12602.7               14033.5         0.465766         7.14655         60.3707
1439.56            12611.7               14051.3         0.468607         7.13415         60.5662
1445.13            12615.5               14060.6         0.470421         7.12179         60.7628
1445.06            12615.4               14060.5         0.470398         7.10932         60.9603
1439.36            12607.1               14046.5         0.468542         7.13121         61.1579
1430.78            12599               14029.8         0.465747         7.15193         61.3548
1423.3            12591.1               14014.4         0.463314         7.17625         61.5505
1420.85            12586.8               14007.7         0.462518         7.18149         61.7452
1425.16            12589.3               14014.5         0.463919         7.1726         61.9394
1434.05            12599.4               14033.5         0.466812         7.16305         62.1337
1442.63            12607.2               14049.8         0.469607         7.13761         62.3285
1447.51            12612.2               14059.7         0.471194         7.12646         62.5236
1448.13            12612               14060.1         0.471395         7.11903         62.7186
1445.39            12608               14053.4         0.470505         7.11796         62.9133
1439.8            12603.4               14043.2         0.468686         7.13222         63.1074
1432.27            12595.9               14028.2         0.466235         7.14095         63.3005
1425.02            12589               14014.1         0.463874         7.15325         63.4925
1420.99            12586.2               14007.2         0.462563         7.16585         63.6836
1422.26            12588               14010.3         0.462974         7.17482         63.8747
1428.46            12593.1               14021.5         0.464992         7.18667         64.0668
1435.98            12599.7               14035.7         0.46744         7.17722         64.2605
1439.5            12604.3               14043.8         0.468586         7.17612         64.4556
1437.05            12602.1               14039.1         0.46779         7.18237         64.6512
1430.49            12595.1               14025.6         0.465654         7.19582         64.8464
1423.89            12589.5               14013.4         0.463504         7.2018         65.0404
1422.06            12585.4               14007.5         0.462911         7.19647         65.2332
1427.55            12588               14015.6         0.464698         7.17838         65.4253
1438.55            12598.1               14036.6         0.468278         7.15242         65.6177
1449.44            12609.9               14059.4         0.471823         7.11206         65.8114
1454.62            12615.7               14070.4         0.473509         7.08597         66.0065
1452.25            12612.6               14064.9         0.472737         7.0927         66.2027
1443.39            12603               14046.4         0.469853         7.11573         66.3992
1430.9            12589.3               14020.2         0.465788         7.14685         66.5953
1418.99            12577.7               13996.7         0.461912         7.17227         66.7899
1412.06            12569.7               13981.8         0.459654         7.20729         66.9831
1411.55            12568.6               13980.2         0.45949         7.21811         67.1753
1414.22            12570.8               13985         0.460357         7.21323         67.3672
1414.91            12571.2               13986.1         0.460584         7.2302         67.559
1411.52            12567.9               13979.4         0.45948         7.23465         67.7505
1406.31            12561.2               13967.5         0.457784         7.24166         67.9414
1403.5            12556.4               13959.9         0.456869         7.25068         68.1319
1406.04            12559               13965         0.457696         7.23264         68.3226
1414.46            12567.9               13982.3         0.460437         7.19997         68.5141
1427.68            12579.2               14006.9         0.464739         7.18612         68.7069
1443.34            12594.2               14037.6         0.469838         7.15976         68.9015
1458.58            12610.8               14069.4         0.474799         7.13114         69.0981
1470.69            12622.2               14092.9         0.478739         7.11386         69.2969
1477.56            12628.1               14105.7         0.480977         7.10592         69.4975
1478.1            12627.4               14105.5         0.481152         7.12262         69.6991
1472.8            12622.3               14095.1         0.479428         7.13373         69.9007
1463.21            12612.7               14076         0.476306         7.15766         70.1013
1452.33            12601.3               14053.6         0.472764         7.17263         70.3003
1442.98            12592.5               14035.4         0.469721         7.18263         70.4975
1436.54            12583.7               14020.3         0.467625         7.18448         70.693
1433.15            12578.8               14012         0.466521         7.19194         70.8876
1433            12579.2               14012.2         0.466472         7.17839         71.0818
1436.73            12584.7               14021.4         0.467685         7.17354         71.2764
1443.47            12593.3               14036.8         0.469881         7.15961         71.4722
1450.35            12599.4               14049.8         0.472118         7.16066         71.6694
1452.73            12600.1               14052.9         0.472895         7.18152         71.8677
1446.3            12592               14038.3         0.4708         7.20924         72.0656
1431.45            12576.9               14008.4         0.465968         7.23409         72.2618
1414.53            12560.3               13974.8         0.46046         7.26835         72.4556
1402.7            12547.4               13950.1         0.456607         7.29336         72.6473
1400.07            12544.8               13944.9         0.45575         7.29651         72.8381
1406.66            12550.3               13957         0.457896         7.27959         73.0292
1419.35            12563.3               13982.6         0.462028         7.25586         73.2214
1434.37            12577.2               14011.6         0.466917         7.22618         73.4152
1448.68            12591.1               14039.7         0.471577         7.18716         73.6108
1458.85            12601.3               14060.1         0.474885         7.15826         73.8078
1462.6            12605.5               14068.1         0.476106         7.15774         74.0055
1461.19            12604.1               14065.2         0.475649         7.16492         74.2029
1456.85            12600.3               14057.2         0.474234         7.18807         74.3996
1451.1            12594.1               14045.2         0.472362         7.20502         74.5952
1445.96            12588.7               14034.7         0.47069         7.21502         74.7898
1443.56            12584.3               14027.8         0.469909         7.22122         74.9839
1444.82            12584               14028.9         0.470318         7.21091         75.1782
1449.22            12586.6               14035.8         0.471751         7.20871         75.3733
1454.52            12592.6               14047.1         0.473475         7.19258         75.5693
1456.96            12595.1               14052.1         0.47427         7.19031         75.7657
1453.13            12590               14043.1         0.473025         7.20483         75.9613
1442.64            12577.3               14019.9         0.469609         7.22371         76.1549
1428.88            12563.7               13992.6         0.465129         7.25297         76.3456
1417.17            12552.3               13969.5         0.46132         7.27759         76.5334
1411.83            12546               13957.9         0.45958         7.28665         76.7193
1413.36            12549               13962.3         0.460079         7.26668         76.9046
1418.46            12555.2               13973.7         0.461737         7.2533         77.0907
1424.43            12559.9               13984.3         0.463681         7.24551         77.278
1430.87            12566.1               13997         0.465777         7.23202         77.4666
1438.03            12573.5               14011.6         0.468108         7.20474         77.6568
1446.17            12579.9               14026.1         0.470758         7.1869         77.8486
1454.44            12586.6               14041.1         0.473449         7.16906         78.0422
1461.52            12595.1               14056.6         0.475757         7.16192         78.2374
1466.71            12600.8               14067.6         0.477444         7.15903         78.4335
1469.99            12603.9               14073.9         0.478514         7.16582         78.6301
1471.29            12605.4               14076.7         0.478936         7.15404         78.8267
1470.13            12602.4               14072.5         0.478558         7.16178         79.023
1466.13            12598.6               14064.8         0.477255         7.17372         79.2188
1458.69            12589.7               14048.4         0.474836         7.18887         79.4134
1448.7            12579.1               14027.8         0.471582         7.21313         79.6063
1439.46            12569.7               14009.1         0.468574         7.24113         79.7973
1435.31            12565.8               14001.1         0.467223         7.251         79.987
1438.08            12567.8               14005.9         0.468123         7.24394         80.1767
1446.06            12574.4               14020.5         0.470723         7.22679         80.3676
1455.5            12582.9               14038.4         0.473796         7.21683         80.5604
1462.37            12591.1               14053.4         0.476032         7.19689         80.7554
1464.33            12592               14056.3         0.476671         7.18455         80.9523
1461.15            12588.7               14049.9         0.475634         7.18581         81.1505
1454.76            12580.4               14035.2         0.473553         7.19827         81.3492
1447.74            12571.9               14019.7         0.47127         7.21761         81.5476
1442.42            12566.4               14008.8         0.469539         7.23322         81.7452
1440.75            12563.4               14004.1         0.468994         7.23358         81.9417
1442.93            12568.3               14011.2         0.469704         7.22284         82.1373
1447.47            12570.7               14018.2         0.471181         7.21372         82.3326
1453.12            12576.5               14029.6         0.47302         7.20289         82.5282
1459.22            12580.8               14040         0.475007         7.20684         82.7244
1464.88            12586.4               14051.3         0.476848         7.20176         82.9215
1468.87            12590.2               14059         0.478148         7.19679         83.119
1470.64            12590.6               14061.2         0.478722         7.20187         83.3162
1469.77            12590.2               14060         0.478442         7.1907         83.5127
1466.02            12587.3               14053.3         0.477221         7.20669         83.708
1459.37            12581.4               14040.8         0.475057         7.22188         83.9021
1450.51            12571.3               14021.9         0.472171         7.25088         84.0954
1441.45            12562.6               14004         0.469221         7.26597         84.2881
1434.88            12556.3               13991.2         0.467083         7.26981         84.481
1433.1            12553.4               13986.5         0.466505         7.27135         84.6746
1435.95            12555.8               13991.7         0.46743         7.2639         84.8692
1441.08            12561               14002         0.469103         7.24803         85.0648
1446.75            12566.2               14012.9         0.470948         7.23621         85.261
1451.69            12570.1               14021.8         0.472557         7.21455         85.4576
1453.94            12572.1               14026         0.473286         7.2071         85.654
1452.72            12570.9               14023.6         0.472891         7.20662         85.8499
1450.07            12567.3               14017.3         0.472027         7.22234         86.0451
1448.31            12567.5               14015.8         0.471454         7.23903         86.2396
1447.74            12564.1               14011.8         0.471269         7.26734         86.4337
1447.26            12563.1               14010.4         0.471112         7.27438         86.6276
1445.98            12561.4               14007.3         0.470696         7.27914         86.821
1444.82            12561.6               14006.4         0.470318         7.27568         87.014
1445.82            12561.7               14007.5         0.470645         7.26259         87.2067
1450.87            12567.5               14018.4         0.472289         7.24065         87.3995
1459.07            12575.8               14034.9         0.474959         7.21434         87.593
1466.73            12582.5               14049.2         0.47745         7.19585         87.7872
1471.08            12587.6               14058.6         0.478867         7.18194         87.9817
1471.76            12589.1               14060.8         0.479088         7.18084         88.1761
1469.24            12585.9               14055.1         0.47827         7.18626         88.3704
1463.52            12578.2               14041.7         0.476407         7.21808         88.5645
1455.06            12569.7               14024.7         0.473652         7.24629         88.7585
1445.44            12560               14005.5         0.470521         7.29088         88.952
1437.18            12551.8               13989         0.467833         7.32601         89.145
1432.8            12546.6               13979.4         0.466405         7.33831         89.3378
1434.31            12548.1               13982.5         0.466897         7.32972         89.5308
1443.03            12556.4               13999.4         0.469735         7.30324         89.7247
1458.01            12571.4               14029.4         0.474613         7.26667         89.9202
1474.81            12588.7               14063.5         0.480082         7.21834         90.1178
1487.24            12600.4               14087.7         0.484128         7.17741         90.3174
1491.13            12604.2               14095.3         0.485394         7.16594         90.5178
1486.82            12597.6               14084.4         0.483992         7.18145         90.718
1478.1            12587.4               14065.5         0.481151         7.20893         90.9167
1468.63            12578.1               14046.8         0.478069         7.22718         91.1135
1460.01            12567.8               14027.8         0.475263         7.24335         91.3084
1452.39            12560.8               14013.2         0.472785         7.25065         91.5014
1446.48            12553.4               13999.9         0.470859         7.25499         91.6929
1443.88            12552.6               13996.5         0.470013         7.25076         91.8833
1445.33            12552.2               13997.5         0.470486         7.26146         92.0734
1449.72            12554.8               14004.6         0.471913         7.2395         92.2642
1454.41            12560.2               14014.6         0.47344         7.24219         92.4564
1457.6            12564.1               14021.7         0.47448         7.25368         92.6502
1458.99            12567               14025.9         0.474931         7.26191         92.8459
1457.53            12564.4               14022         0.474457         7.27225         93.0431
1452.12            12558.5               14010.7         0.472695         7.28986         93.241
1444.32            12550.7               13995.1         0.470158         7.30796         93.4386
1437.6            12541.4               13979         0.467969         7.31852         93.6353
1435.85            12539.7               13975.5         0.467398         7.32642         93.8309
1440.12            12543.9               13984         0.46879         7.3156         94.0261
1447.49            12552.3               13999.7         0.471189         7.30194         94.2213
1453.45            12557.6               14011.1         0.473129         7.29211         94.4165
1456.2            12559               14015.2         0.474024         7.27955         94.6111
1457.57            12559.2               14016.8         0.474468         7.27901         94.8049
1460.51            12561.8               14022.3         0.475427         7.27117         94.9982
1466.58            12566.5               14033.1         0.477404         7.26169         95.1921
1474.93            12575.1               14050         0.480121         7.23674         95.3873
1482.64            12584.1               14066.7         0.482631         7.21208         95.5843
1486.61            12586.1               14072.7         0.483922         7.21891         95.7829
1486.05            12586.1               14072.1         0.483739         7.21101         95.9828
1482.5            12583.2               14065.7         0.482585         7.21555         96.183
1479.16            12579.8               14059         0.481497         7.22718         96.383
1478.47            12580.2               14058.7         0.481273         7.23417         96.5826
1479.51            12580.3               14059.8         0.481612         7.23493         96.782
1479.21            12579.6               14058.8         0.481514         7.25349         96.9809
1475.75            12575.3               14051         0.480387         7.26489         97.1789
1469.83            12569.4               14039.3         0.478462         7.28511         97.3753
1463.3            12562.8               14026.1         0.476334         7.29887         97.5696
1457.18            12556.6               14013.8         0.474343         7.3012         97.7619
1451.58            12549.8               14001.4         0.472521         7.31235         97.9525
1445.37            12544.2               13989.6         0.470497         7.30681         98.142
1437.25            12536.7               13974         0.467853         7.31004         98.331
1429.09            12528               13957         0.465198         7.33219         98.52
1426.07            12524.4               13950.5         0.464217         7.33874         98.7101
1432.04            12530               13962.1         0.466158         7.34171         98.9027
1445.91            12543.8               13989.7         0.470674         7.312         99.0992
1461.44            12558.9               14020.4         0.47573         7.27876         99.3
1471.86            12569.2               14041.1         0.479119         7.24284         99.5035
1474.84            12571.9               14046.7         0.480091         7.24087         99.7078
1472.95            12569.7               14042.7         0.479475         7.23733         99.9109
1470.68            12565.8               14036.5         0.478737         7.2596         100.112
1470.25            12565.8               14036         0.478595         7.26104         100.311
1471.12            12567               14038.1         0.478882         7.26335         100.508
1472.21            12567.9               14040.1         0.479236         7.26782         100.704
1473.3            12568.6               14041.9         0.47959         7.27144         100.901
1474.01            12566.9               14040.9         0.47982         7.27533         101.097
1473.36            12565.9               14039.3         0.47961         7.2715         101.295
1471.38            12563.7               14035.1         0.478964         7.27994         101.494
1469.42            12561.6               14031         0.478328         7.29273         101.693
1468.8            12562.1               14030.9         0.478126         7.29101         101.894
1469.66            12561.1               14030.8         0.478406         7.29387         102.096
1471.7            12564.6               14036.3         0.479068         7.29159         102.299
1474.1            12566.1               14040.2         0.479849         7.28808         102.502
1475.4            12567.9               14043.3         0.480273         7.28715         102.704
1473.47            12565.1               14038.6         0.479645         7.28412         102.905
1467.29            12558.6               14025.8         0.477633         7.28431         103.104
1458.09            12547.9               14006         0.474637         7.29859         103.3
1449.05            12538.8               13987.8         0.471697         7.30564         103.494
1444.12            12533.2               13977.3         0.470091         7.31533         103.687
1445.63            12537.1               13982.7         0.470582         7.31626         103.88
1453.02            12543.3               13996.3         0.472989         7.30654         104.073
1463.71            12553.2               14016.9         0.476469         7.2776         104.267
1474.53            12563.4               14037.9         0.479992         7.25526         104.462
1483.22            12572.1               14055.4         0.482819         7.24513         104.658
1488.48            12575.8               14064.3         0.484532         7.24439         104.855
1489.45            12577.7               14067.1         0.484846         7.24302         105.053
1484.75            12573.5               14058.3         0.483318         7.2531         105.251
1473.58            12561.6               14035.2         0.479682         7.27729         105.448
1457.77            12548.6               14006.3         0.474535         7.30329         105.643
1441.22            12533.1               13974.3         0.469147         7.33744         105.837
1428.86            12519.8               13948.7         0.465123         7.37656         106.029
1425.4            12513.8               13939.2         0.463998         7.39614         106.219
1432.8            12520.9               13953.7         0.466405         7.38037         106.41
1447.98            12538.1               13986.1         0.471347         7.35166         106.602
1465.9            12555.6               14021.5         0.477182         7.30423         106.797
1483.43            12573.1               14056.6         0.482887         7.24172         106.994
1499.11            12588.1               14087.2         0.487991         7.20902         107.194
1511.15            12600.7               14111.9         0.491912         7.17299         107.396
1517.02            12605.4               14122.4         0.49382         7.15306         107.6
1514.62            12601.3               14115.9         0.493041         7.17455         107.805
1504.45            12589.6               14094.1         0.489731         7.19075         108.009
1489.67            12573.7               14063.3         0.484918         7.23933         108.211
1474.37            12559               14033.4         0.47994         7.27388         108.412
1461.49            12546               14007.5         0.475744         7.30155         108.61
1451.93            12535.8               13987.8         0.472635         7.32479         108.808
1445.68            12531.8               13977.5         0.470598         7.33711         109.005
1442.55            12529               13971.6         0.469579         7.34664         109.202
1442.63            12528               13970.6         0.469607         7.35089         109.399
1446.6            12531.8               13978.4         0.470897         7.34599         109.597
1455.56            12538.7               13994.2         0.473815         7.32517         109.794
1467.26            12549.4               14016.6         0.477622         7.29925         109.993
1476.51            12558.8               14035.3         0.480636         7.27659         110.193
1480.75            12562.4               14043.2         0.482014         7.2772         110.394
1479.93            12563.1               14043         0.481749         7.2758         110.597
1475.03            12556.6               14031.6         0.480154         7.2901         110.801
1466.76            12547               14013.7         0.47746         7.30877         111.005
1456.19            12535.5               13991.6         0.474022         7.33534         111.208
1446.28            12526.6               13972.9         0.470794         7.35177         111.409
1440.27            12521.4               13961.6         0.468837         7.35344         111.608
1440.56            12520.7               13961.2         0.468933         7.35359         111.806
1447.84            12526.9               13974.7         0.471302         7.33944         112.004
1460            12537.1               13997.1         0.475259         7.31325         112.204
1473.29            12549.8               14023.1         0.479586         7.2933         112.406
1483.39            12560.4               14043.7         0.482873         7.27344         112.609
1487.59            12565.5               14053.1         0.484241         7.25919         112.814
1487.06            12565               14052.1         0.484069         7.2596         113.019
1485.41            12562.7               14048.1         0.483532         7.25995         113.223
1485.31            12563.5               14048.8         0.4835         7.26237         113.427
1486.62            12563.8               14050.5         0.483925         7.27389         113.629
1487.97            12565.8               14053.7         0.484364         7.28041         113.831
1487.77            12565               14052.7         0.484301         7.28341         114.033
1485.15            12561.4               14046.6         0.483447         7.28917         114.234
1480.59            12557.2               14037.8         0.481964         7.28982         114.434
1475.07            12553.5               14028.6         0.480166         7.29222         114.633
1469.88            12547.9               14017.8         0.478478         7.29701         114.832
1467.14            12546.3               14013.4         0.477584         7.28925         115.031
1468.36            12547.8               14016.2         0.477981         7.2894         115.23
1472.63            12550.7               14023.3         0.47937         7.29413         115.43
1476.65            12553               14029.7         0.48068         7.288         115.63
1477.69            12554.5               14032.2         0.481019         7.29306         115.83
1475.16            12551.6               14026.8         0.480196         7.29853         116.029
1471.05            12547.5               14018.5         0.478858         7.30975         116.226
1468.73            12544.8               14013.6         0.478102         7.30854         116.422
1470.55            12545               14015.6         0.478696         7.30354         116.618
1476.09            12548.8               14024.9         0.480497         7.29246         116.814
1482.01            12552.8               14034.8         0.482425         7.27808         117.012
1485.5            12557.1               14042.6         0.483561         7.26389         117.211
1485.35            12556.5               14041.8         0.483513         7.27325         117.41
1481.74            12553.7               14035.5         0.482338         7.28936         117.608
1476.32            12547               14023.3         0.480572         7.31937         117.804
1471.49            12542.9               14014.4         0.479         7.34019         118.001
1469.5            12542.4               14011.9         0.478353         7.34178         118.198
1471.51            12545.4               14016.9         0.479006         7.3346         118.396
1476.21            12549.2               14025.4         0.480537         7.32116         118.596
1481.36            12552.4               14033.8         0.482214         7.31032         118.798
1484.46            12556.7               14041.1         0.483223         7.30128         119.002
1482.64            12556.3               14038.9         0.482631         7.2997         119.205
1474.6            12547.7               14022.3         0.480011         7.31036         119.406
1462.45            12533.3               13995.8         0.476059         7.33843         119.606
1450.66            12519.4               13970         0.47222         7.37017         119.803
1443.74            12510.8               13954.6         0.469968         7.39181         119.999
1444.29            12510.5               13954.8         0.470147         7.40691         120.196
1451.96            12516.9               13968.9         0.472643         7.40481         120.394
1464.72            12529.4               13994.1         0.476797         7.38012         120.593
1478.96            12544.6               14023.6         0.481431         7.35527         120.795
1490.64            12555.6               14046.2         0.485235         7.33286         120.997
1496.99            12561.8               14058.7         0.487301         7.32087         121.199
1497.32            12563.6               14060.9         0.48741         7.3131         121.4
1492.93            12558.9               14051.9         0.48598         7.30773         121.599
1486.82            12553.3               14040.1         0.483991         7.31378         121.798
1481.67            12548.3               14030         0.482316         7.31442         121.996
1479            12545.6               14024.6         0.481446         7.31659         122.195
1480.26            12547.4               14027.6         0.481857         7.30267         122.396
1486.07            12553.1               14039.2         0.483748         7.2853         122.598
1495.11            12563               14058.1         0.48669         7.26478         122.803
1502.81            12569.1               14071.9         0.489196         7.25689         123.011
1503.48            12570.4               14073.9         0.489413         7.26133         123.22
1494.56            12563.5               14058         0.486509         7.2844         123.429
1478.55            12545.4               14024         0.4813         7.32622         123.635
1461.53            12526.9               13988.4         0.475759         7.37859         123.838
1448.6            12512.5               13961.1         0.471548         7.41266         124.037
1442.36            12506.2               13948.6         0.469518         7.42249         124.234
1443.6            12507.3               13950.9         0.469921         7.41655         124.43
1452.04            12517.1               13969.1         0.472668         7.38561         124.625
1465.36            12531               13996.3         0.477005         7.34033         124.822
1478.99            12543               14022         0.481442         7.30429         125.021
1489.04            12552.7               14041.7         0.484714         7.26334         125.221
1493.98            12556.5               14050.4         0.486323         7.25465         125.424
1493.72            12557.1               14050.8         0.486238         7.2508         125.627
1488.67            12550.8               14039.5         0.484593         7.27384         125.831
1480.52            12542.7               14023.3         0.481939         7.29901         126.035
1472.35            12533.7               14006.1         0.47928         7.32931         126.238
1467.34            12528.6               13996         0.47765         7.34737         126.439
1466.52            12526.3               13992.8         0.477384         7.36324         126.639
1468.46            12528.1               13996.6         0.478013         7.36827         126.838
1471.17            12533.9               14005.1         0.478895         7.35711         127.035
1473.6            12536.7               14010.3         0.479687         7.35148         127.232
1476.11            12540.2               14016.3         0.480505         7.33774         127.429
1480.18            12542.2               14022.3         0.481829         7.3382         127.627
1486.47            12547.4               14033.9         0.483876         7.32899         127.826
1491.64            12553.9               14045.6         0.48556         7.3143         128.027
1491.18            12551.3               14042.5         0.485412         7.31662         128.229
1485.11            12545.3               14030.4         0.483435         7.33748         128.43
1477.47            12537               14014.4         0.480948         7.35168         128.631
1473.57            12532.7               14006.2         0.479677         7.35563         128.83
1475.94            12533.6               14009.5         0.48045         7.35146         129.028
1482.71            12540               14022.7         0.482652         7.3333         129.227
1489.09            12546.5               14035.6         0.48473         7.31451         129.427
1490.41            12547.9               14038.3         0.485159         7.31812         129.628
1484.74            12541.3               14026         0.483314         7.33492         129.829
1473.76            12530               14003.7         0.479739         7.35673         130.029
1462.19            12516               13978.2         0.475975         7.39171         130.228
1454.39            12508.4               13962.8         0.473435         7.40575         130.427
1452.07            12506.5               13958.5         0.47268         7.41073         130.626
1454.28            12508.9               13963.2         0.4734         7.39842         130.826
1459.27            12511.8               13971         0.475021         7.38684         131.027
1466.22            12519.3               13985.5         0.477287         7.37478         131.228
1475.06            12527.9               14003         0.480163         7.35836         131.43
1485.56            12539.5               14025         0.483582         7.33198         131.632
1495.96            12551.9               14047.9         0.486968         7.30884         131.835
1502.84            12561.1               14063.9         0.489207         7.29396         132.037
1502.71            12560.4               14063.1         0.489163         7.29376         132.239
1495.29            12550.8               14046.1         0.486749         7.30611         132.44
1484.21            12538.8               14023         0.483142         7.34006         132.639
1474.15            12529.2               14003.3         0.479866         7.36261         132.837
1468.74            12521.9               13990.6         0.478105         7.37259         133.034
1469.7            12521               13990.7         0.478418         7.37443         133.232
1476.09            12528.5               14004.6         0.480499         7.35932         133.431
1485.12            12535.7               14020.8         0.483438         7.35276         133.631
1493.82            12543.4               14037.2         0.48627         7.33823         133.833
1500.19            12547.3               14047.5         0.488344         7.33853         134.037
1502.91            12550.4               14053.3         0.48923         7.3348         134.24
1501.35            12549.9               14051.3         0.488721         7.33926         134.444
1496.02            12544.2               14040.2         0.486987         7.35737         134.646
1488.9            12539.7               14028.6         0.484669         7.35821         134.848
1482.84            12533.8               14016.6         0.482694         7.37377         135.05
1479.72            12530.4               14010.1         0.481679         7.37994         135.251
1479.46            12529.3               14008.7         0.481595         7.38012         135.454
1480.94            12529.3               14010.2         0.482076         7.36094         135.656
1483.74            12532.5               14016.2         0.482988         7.34476         135.859
1488.97            12538.9               14027.9         0.484692         7.32325         136.06
1497.22            12547.1               14044.3         0.487375         7.30045         136.262
1505.57            12555.9               14061.5         0.490094         7.28415         136.464
1508.82            12559.5               14068.3         0.491152         7.28149         136.667
1504.77            12555.2               14060         0.489835         7.29534         136.87
1495.15            12546.8               14041.9         0.486701         7.32059         137.072
1483.46            12534.4               14017.9         0.482899         7.35803         137.273
1474.18            12526.4               14000.6         0.479877         7.38339         137.473
1470.73            12522.7               13993.5         0.478755         7.39897         137.673
1473.42            12525.4               13998.8         0.479628         7.40546         137.873
1479.47            12531.7               14011.2         0.481598         7.39515         138.073
1485.8            12537               14022.8         0.483657         7.37868         138.274
1490.48            12540.5               14031         0.485184         7.36031         138.476
1492.47            12542.6               14035         0.485829         7.35083         138.679
1490.08            12540.7               14030.8         0.485051         7.34487         138.881
1483.7            12533.9               14017.6         0.482974         7.34598         139.084
1477.08            12527.5               14004.6         0.480822         7.34925         139.286
1474.47            12523.2               13997.7         0.479972         7.35436         139.488
1477.01            12526.3               14003.3         0.480798         7.34516         139.689
1481.81            12531.5               14013.3         0.48236         7.33477         139.891
1485.54            12535.6               14021.2         0.483575         7.32988         140.093
1487.52            12536.8               14024.4         0.484219         7.33411         140.295
1488.43            12537.3               14025.7         0.484514         7.35373         140.498
1488.68            12536.6               14025.3         0.484597         7.35887         140.701
1488.73            12537.8               14026.5         0.484612         7.35875         140.905
1488.34            12537.7               14026.1         0.484487         7.36264         141.11
1486.39            12536.6               14023         0.483852         7.3672         141.316
1482.06            12531.6               14013.7         0.482442         7.38084         141.521
1475.97            12524               13999.9         0.480458         7.40133         141.724
1469.93            12516.2               13986.1         0.478493         7.42242         141.925
1465.11            12511.1               13976.2         0.476925         7.43778         142.124
1462.16            12507.4               13969.5         0.475965         7.44639         142.322
1462.49            12507.6               13970.1         0.47607         7.43528         142.519
1468            12512.3               13980.3         0.477863         7.40897         142.717
1478.23            12523.8               14002         0.481195         7.3669         142.916
1489.11            12534.3               14023.4         0.484736         7.3349         143.117
1496.2            12541.7               14037.9         0.487045         7.31468         143.322
1497.49            12542.7               14040.2         0.487464         7.29967         143.527
1494.89            12540.2               14035         0.486617         7.30702         143.732
1491.99            12539.2               14031.2         0.485675         7.31086         143.937
1491.12            12538.9               14030.1         0.485392         7.31537         144.141
1493.07            12539.7               14032.8         0.486025         7.32171         144.345
1497.1            12543.9               14041         0.487337         7.33251         144.55
1500.6            12547.3               14047.9         0.488478         7.33662         144.756
1501.28            12547.2               14048.5         0.488699         7.3492         144.961
1498.71            12544.9               14043.6         0.48786         7.35829         145.167
1494.82            12540.2               14035         0.486596         7.37618         145.373
1492.48            12536.4               14028.8         0.485832         7.38778         145.577
1490.8            12535               14025.8         0.485287         7.39244         145.782
1486.31            12532               14018.3         0.483826         7.38659         145.985
1477.58            12523.6               14001.1         0.480982         7.3906         146.187
1466.51            12511.5               13978         0.477379         7.40297         146.386
1457.37            12501.7               13959         0.474403         7.416         146.584
1455.08            12498.7               13953.7         0.473659         7.40679         146.78
1462.37            12504.8               13967.1         0.476033         7.3848         146.976
1478.43            12521.1               13999.5         0.481259         7.35512         147.174
1497.63            12540.8               14038.5         0.48751         7.31691         147.375
1511.47            12553.7               14065.2         0.492013         7.29921         147.579
1514.61            12555.5               14070.1         0.493037         7.30626         147.784
1508.35            12548.2               14056.6         0.490998         7.33201         147.99
1498.29            12539.3               14037.6         0.487723         7.35797         148.196
1489.23            12529.7               14019         0.484777         7.3762         148.401
1482.9            12523.9               14006.8         0.482716         7.39285         148.605
1478.79            12518.3               13997.1         0.481375         7.41389         148.808
1476.04            12516               13992         0.480482         7.42081         149.01
1474.66            12515.5               13990.1         0.480033         7.41699         149.212
1476.02            12517.5               13993.6         0.480474         7.40013         149.412
1481.97            12522.3               14004.3         0.482412         7.39545         149.612
1492.65            12532.9               14025.6         0.485888         7.37117         149.814
1504.45            12544.4               14048.9         0.489729         7.34299         150.017
1512.42            12551.8               14064.2         0.492323         7.32783         150.221
1513.26            12551.5               14064.8         0.492599         7.33591         150.426
1506.56            12545.5               14052         0.490416         7.34867         150.63
1494.38            12533.4               14027.8         0.486451         7.37501         150.834
1480.64            12519.4               14000.1         0.481978         7.40648         151.036
1470.09            12507.6               13977.7         0.478543         7.42429         151.237
1465.71            12504.1               13969.9         0.47712         7.42339         151.436
1467.76            12507.8               13975.5         0.477788         7.41305         151.636
1473.84            12512.6               13986.5         0.479766         7.39824         151.836
1480.32            12518.7               13999         0.481876         7.37933         152.036
1485.15            12523               14008.2         0.483446         7.37805         152.238
1488.67            12527.6               14016.3         0.484594         7.37595         152.439
1491.66            12530.8               14022.5         0.485568         7.3736         152.64
1493.92            12532.5               14026.5         0.486303         7.36573         152.84
1495.08            12535.4               14030.5         0.486678         7.3605         153.041
1495.64            12535.8               14031.4         0.486862         7.3636         153.241
1496.75            12536.8               14033.5         0.487224         7.35735         153.441
1498.55            12537.9               14036.4         0.487811         7.35269         153.641
1500.08            12539.4               14039.4         0.488306         7.34975         153.841
1501.09            12540               14041.1         0.488635         7.3443         154.042
1502.92            12541.4               14044.3         0.489232         7.34001         154.243
1507.69            12543.7               14051.4         0.490784         7.33257         154.445
1515.5            12550.9               14066.4         0.493326         7.3165         154.648
1523.18            12558.3               14081.4         0.495826         7.30203         154.854
1526.3            12561.9               14088.2         0.496841         7.29607         155.06
1521.08            12558.4               14079.5         0.495144         7.31523         155.267
1506.46            12544.7               14051.1         0.490383         7.3456         155.473
1484.8            12523.2               14008         0.483333         7.39379         155.677
1461.2            12499.4               13960.6         0.475651         7.45584         155.878
1441.13            12478               13919.1         0.469119         7.50716         156.076
1429.03            12466.1               13895.1         0.465179         7.52942         156.272
1427.15            12464.5               13891.6         0.464566         7.52248         156.468
1435.52            12474.3               13909.8         0.467293         7.49818         156.665
1451.51            12489               13940.5         0.472496         7.45431         156.864
1469.74            12508.4               13978.1         0.478432         7.41265         157.065
1484.62            12522               14006.6         0.483274         7.38079         157.268
1493.61            12528.6               14022.3         0.486201         7.36475         157.471
1497.7            12531.8               14029.5         0.487533         7.35775         157.675
1499.3            12533.4               14032.7         0.488052         7.3621         157.878
1500.13            12533.9               14034         0.488324         7.36641         158.081
1500.72            12533.5               14034.3         0.488515         7.37883         158.282
1501.78            12535.5               14037.3         0.488861         7.37777         158.483
1504.44            12538.7               14043.1         0.489726         7.37442         158.684
1508.05            12541.9               14049.9         0.4909         7.36329         158.885
1510.42            12543.3               14053.7         0.491674         7.35324         159.086
1509.79            12544.3               14054.1         0.491468         7.34285         159.287
1506.56            12540.6               14047.1         0.490417         7.34806         159.488
1502.43            12535.7               14038.1         0.489073         7.35446         159.688
1497.87            12532.6               14030.5         0.487589         7.35463         159.888
1492.61            12527.6               14020.2         0.485877         7.36259         160.088
1487.55            12522.7               14010.3         0.484228         7.3743         160.287
1483.64            12518.7               14002.3         0.482954         7.38071         160.487
1480.77            12516.5               13997.3         0.482022         7.38894         160.686
1479.05            12515               13994         0.481462         7.39529         160.886
1479.17            12513.7               13992.9         0.4815         7.40372         161.086
1481.19            12515               13996.1         0.482158         7.41503         161.287
1483.81            12518.2               14002         0.48301         7.41899         161.49
1486.18            12520.9               14007.1         0.483784         7.42126         161.692
1488.71            12523.7               14012.4         0.484607         7.41252         161.894
1492.07            12526.8               14018.9         0.485699         7.40047         162.096
1495.55            12530.4               14025.9         0.486834         7.3905         162.298
1497.28            12531.5               14028.8         0.487395         7.38137         162.5
1495.77            12527.6               14023.4         0.486904         7.38177         162.702
1491.75            12521.7               14013.5         0.485596         7.38085         162.903
1487.87            12518.3               14006.1         0.484332         7.37954         163.104
1486.17            12517.1               14003.3         0.483778         7.38327         163.305
1486.42            12518.4               14004.8         0.48386         7.38519         163.504
1487.57            12520               14007.5         0.484236         7.38811         163.704
1489.63            12522.3               14011.9         0.484904         7.39159         163.904
1491.99            12524.2               14016.2         0.485673         7.39686         164.106
1493.34            12524.1               14017.4         0.486114         7.40131         164.308
1493.39            12525.9               14019.3         0.486131         7.38996         164.512
1492.73            12525.7               14018.4         0.485915         7.38613         164.716
1491.78            12524.2               14016         0.485604         7.38853         164.921
1490.81            12521.7               14012.5         0.48529         7.39833         165.125
1490.9            12521.6               14012.5         0.485318         7.38713         165.328
1493.23            12524.7               14018         0.486077         7.37674         165.531
1497.03            12529.2               14026.3         0.487313         7.36563         165.734
1500.02            12531.9               14031.9         0.488288         7.36173         165.938
1500.17            12532.4               14032.6         0.488338         7.36266         166.143
1497.04            12526.8               14023.8         0.487319         7.37686         166.348
1491.49            12519.7               14011.2         0.485512         7.39283         166.553
1484.63            12514               13998.7         0.483279         7.40778         166.756
1477.99            12506.6               13984.6         0.481118         7.42299         166.958
1473.07            12502.5               13975.5         0.479515         7.42713         167.157
1470.69            12500.6               13971.3         0.478741         7.43051         167.355
1471.26            12501.2               13972.5         0.478926         7.4266         167.552
1474.51            12504.4               13979         0.479984         7.42216         167.75
1479.63            12508.5               13988.1         0.481652         7.41581         167.948
1487.15            12515.9               14003.1         0.484098         7.40274         168.148
1497.48            12525.5               14023         0.487462         7.38536         168.349
1509.2            12537               14046.2         0.491276         7.3665         168.553
1519.49            12547.8               14067.3         0.494626         7.34525         168.759
1525.11            12551.9               14077         0.496455         7.34028         168.966
1524.22            12551.5               14075.7         0.496166         7.34023         169.172
1517.2            12544.9               14062.1         0.493879         7.34718         169.378
1507.26            12536.9               14044.1         0.490643         7.35669         169.582
1498.21            12528.4               14026.6         0.487699         7.38134         169.785
1490.92            12521.3               14012.2         0.485326         7.39619         169.986
1483.3            12512.8               13996.1         0.482846         7.4118         170.185
1473.5            12503.6               13977.1         0.479654         7.43613         170.382
1463.63            12491.7               13955.4         0.476442         7.46457         170.576
1459.8            12488.7               13948.5         0.475194         7.47529         170.77
1466.37            12495.5               13961.9         0.477333         7.45738         170.964
1481.78            12509.2               13991         0.482351         7.43331         171.16
1500.03            12529.2               14029.3         0.488292         7.39418         171.361
1514.58            12542.4               14056.9         0.493027         7.36609         171.566
1522.6            12550.8               14073.4         0.495639         7.35065         171.774
1524.87            12553.2               14078.1         0.496377         7.34213         171.982
1522.5            12550.2               14072.7         0.495606         7.33823         172.19
1515.69            12542.9               14058.6         0.493388         7.35678         172.396
1504.53            12532.2               14036.8         0.489756         7.38143         172.598
1491.43            12519.7               14011.2         0.485492         7.40599         172.797
1480.01            12508.7               13988.7         0.481773         7.43364         172.992
1472.71            12500.9               13973.6         0.479399         7.45139         173.184
1470.81            12497.8               13968.6         0.478779         7.45649         173.376
1473.88            12502.5               13976.4         0.479778         7.44677         173.57
1480.05            12508.2               13988.2         0.481788         7.43363         173.765
1486.53            12514.5               14001.1         0.483898         7.42608         173.964
1490.92            12519.3               14010.2         0.485326         7.41328         174.165
1493.37            12521.5               14014.9         0.486123         7.40797         174.368
1495.82            12523.3               14019.2         0.48692         7.40752         174.573
1498.33            12526               14024.3         0.487737         7.40372         174.777
1497.49            12524.5               14022         0.487463         7.40528         174.982
1490.81            12518.2               14009         0.485288         7.41217         175.186
1481.35            12509.5               13990.8         0.482211         7.42152         175.387
1476.05            12504               13980         0.480484         7.43003         175.587
1479.58            12505.8               13985.4         0.481634         7.42688         175.786
1490.94            12515.7               14006.6         0.485333         7.39871         175.986
1505.3            12529.4               14034.7         0.490008         7.36793         176.187
1518.3            12541.1               14059.4         0.494239         7.34315         176.391
1527.75            12552.5               14080.3         0.497314         7.316         176.596
1533.1            12556.2               14089.3         0.499055         7.31788         176.803
1533.81            12557.1               14090.9         0.499287         7.32277         177.01
1528.67            12551.9               14080.6         0.497613         7.34917         177.217
1517.1            12541.2               14058.3         0.493848         7.37884         177.424
1500.56            12523.7               14024.2         0.488463         7.42083         177.629
1483.49            12507               13990.5         0.482906         7.45961         177.832
1472.26            12496.9               13969.2         0.479253         7.4768         178.033
1471.21            12496.7               13967.9         0.478909         7.48072         178.233
1479.75            12505.9               13985.6         0.48169         7.452         178.432
1492.68            12519.4               14012         0.4859         7.41317         178.633
1502.97            12530.2               14033.1         0.489248         7.3779         178.836
1504.96            12532               14036.9         0.489897         7.36458         179.039
1497.31            12522.5               14019.8         0.487406         7.37782         179.242
1483.85            12507.7               13991.6         0.483024         7.40323         179.444
1471.2            12495.3               13966.5         0.478906         7.42391         179.643
1464.26            12489.1               13953.4         0.476648         7.43551         179.841
1463.52            12486.5               13950         0.476406         7.44757         180.038
1467.05            12491.4               13958.5         0.477556         7.44138         180.235
1472.46            12497               13969.5         0.479317         7.43858         180.432
1478.36            12502.4               13980.8         0.481238         7.43546         180.63
1483.33            12509               13992.3         0.482854         7.42891         180.829
1485.83            12511.4               13997.2         0.483668         7.42602         181.028
1486.36            12512.1               13998.5         0.483841         7.42885         181.228
1486.77            12513.6               14000.4         0.483973         7.42525         181.427
1488.56            12515.6               14004.2         0.484556         7.42365         181.627
1492.58            12519.5               14012.1         0.485867         7.4137         181.828
1498.82            12525               14023.9         0.487899         7.40497         182.03
1506.75            12532.8               14039.5         0.490479         7.38781         182.234
1515.13            12542.1               14057.3         0.493206         7.36965         182.44
1521.77            12550               14071.8         0.495369         7.35791         182.648
1524.25            12552.2               14076.4         0.496174         7.35675         182.858
1521.26            12548.1               14069.3         0.495201         7.36401         183.068
1513.43            12538.9               14052.3         0.492653         7.38496         183.278
1502.86            12527.5               14030.4         0.489211         7.40473         183.486
1493.04            12516               14009         0.486016         7.42642         183.69
1487.73            12510.3               13998.1         0.484287         7.42903         183.892
1489.15            12511.2               14000.4         0.484749         7.42507         184.092
1496.85            12516.4               14013.2         0.487256         7.40665         184.291
1507.22            12527.8               14035         0.490631         7.37238         184.492
1514.77            12536.7               14051.5         0.493091         7.35348         184.694
1515.63            12538.5               14054.1         0.49337         7.35042         184.897
1509.18            12532.2               14041.3         0.491271         7.36916         185.1
1497.46            12520.8               14018.2         0.487454         7.40529         185.303
1483.49            12507.8               13991.3         0.482906         7.43498         185.504
1469.56            12493.1               13962.7         0.478373         7.47606         185.705
1458.35            12480.9               13939.3         0.474724         7.50951         185.904
1453.59            12477.1               13930.7         0.473174         7.51665         186.103
1457.45            12480.2               13937.7         0.47443         7.50741         186.302
1469.44            12490.7               13960.2         0.478333         7.47957         186.502
1486.11            12509.6               13995.7         0.483761         7.43068         186.704
1502.28            12525.9               14028.2         0.489025         7.38709         186.907
1514.58            12537.3               14051.9         0.493028         7.35385         187.112
1521.88            12542.1               14064         0.495404         7.3418         187.319
1524.37            12544.5               14068.9         0.496213         7.33216         187.526
1522.36            12543.3               14065.7         0.49556         7.33532         187.733
1516.3            12536.6               14052.9         0.493588         7.35829         187.939
1506.93            12526.8               14033.7         0.490537         7.3928         188.145
1495.25            12515.3               14010.6         0.486734         7.43009         188.348
1483.87            12504.5               13988.3         0.48303         7.46099         188.55
1476.88            12497.5               13974.4         0.480756         7.47802         188.75
1477.24            12500.2               13977.4         0.480871         7.46833         188.949
1484.19            12507.5               13991.6         0.483134         7.44799         189.148
1494.05            12518               14012.1         0.486343         7.42126         189.349
1502.76            12526               14028.8         0.489179         7.38841         189.55
1508.34            12531.9               14040.3         0.490996         7.37403         189.751
1511.04            12533.5               14044.5         0.491876         7.36281         189.953
1511.59            12534.4               14045.9         0.492055         7.35359         190.155
1510.35            12532.5               14042.8         0.491649         7.35877         190.357
1507.51            12530.5               14038.1         0.490726         7.36182         190.558
1503.1            12527               14030.1         0.489292         7.36941         190.758
1496.84            12520.4               14017.2         0.487253         7.39047         190.957
1488.91            12510.7               13999.6         0.484671         7.42446         191.156
1481.27            12501.9               13983.2         0.482183         7.44376         191.354
1477.34            12495.6               13973         0.480906         7.46667         191.552
1479.19            12498.2               13977.3         0.481506         7.45766         191.751
1485.53            12504.6               13990.1         0.483571         7.43823         191.951
1492.94            12512.4               14005.3         0.485982         7.41326         192.152
1498.27            12516.8               14015.1         0.487719         7.40016         192.354
1500.53            12519.9               14020.5         0.488453         7.39323         192.557
1499.75            12519.2               14019         0.488201         7.39483         192.759
1495.87            12515.7               14011.6         0.486936         7.40382         192.96
1489.3            12509.5               13998.8         0.484798         7.41618         193.162
1482.73            12501.7               13984.4         0.482658         7.4377         193.363
1480.39            12499.7               13980.1         0.481899         7.4539         193.564
1484.34            12506.3               13990.6         0.483183         7.44339         193.766
1492.36            12516               14008.3         0.485794         7.42772         193.968
1501.23            12522.3               14023.6         0.488682         7.41204         194.172
1509.47            12528.9               14038.4         0.491366         7.39828         194.376
1515.16            12535.3               14050.5         0.493218         7.38247         194.581
1515.89            12537               14052.9         0.493452         7.36737         194.786
1511.33            12532.7               14044.1         0.491971         7.36772         194.99
1503.83            12524.1               14027.9         0.489527         7.38023         195.194
1497.13            12518.6               14015.7         0.487347         7.38811         195.398
1493.5            12515.9               14009.4         0.486164         7.38955         195.603
1493.03            12516.4               14009.5         0.486013         7.3849         195.808
1494.53            12517.7               14012.2         0.4865         7.38566         196.014
1496.1            12519.3               14015.4         0.487012         7.38573         196.221
