dt: 0.01 CellNx: 4 b: 5.26 noParticles: 2048
Kinetic energy     Potential energy   Total energy   Temperature         Pressure   Average displacement    Radial distribution
0            0               0         100         108.514         0.000255337
0            0               0         0.739942         1.55127         0.000935275
0            0               0         0.811534         2.89061         0.00207855
0            0               0         0.804618         4.54852         0.00361999
0            0               0         0.737982         6.18615         0.00541851
0            0               0         0.658798         7.45779         0.00731871
0            0               0         0.633276         8.18685         0.00922612
0            0               0         0.708381         8.45524         0.0111429
0            0               0         0.86286         8.64851         0.0131407
0            0               0         1.0182         9.1272         0.0152931
0            0               0         1.11298         9.9327         0.0176146
0            0               0         1.13779         10.9185         0.0200492
0            0               0         1.12161         11.8767         0.0224996
0            0               0         1.1071         12.6032         0.0248731
0            0               0         1.12919         13.011         0.0271193
0            0               0         1.20037         13.2281         0.0292453
0            0               0         1.30701         13.4058         0.0312987
0            0               0         1.42148         13.6957         0.0333406
0            0               0         1.5141         14.0854         0.0354111
0            0               0         1.56831         14.5068         0.0375144
0            0               0         1.59173         14.9643         0.0396274
0            0               0         1.60111         15.3559         0.0417129
0            0               0         1.6127         15.6204         0.0437406
0            0               0         1.63945         15.8325         0.0457035
0            0               0         1.67913         16.0671         0.0476092
0            0               0         1.72485         16.2442         0.0494675
0            0               0         1.77402         16.3972         0.0512955
0            0               0         1.82381         16.5513         0.053114
0            0               0         1.86734         16.7126         0.054944
0            0               0         1.8915         17.0061         0.0567905
0            0               0         1.89501         17.2602         0.058628
0            0               0         1.89685         17.4262         0.0604287
0            0               0         1.91639         17.6012         0.0621876
0            0               0         1.95276         17.788         0.0639174
0            0               0         1.99066         17.9716         0.0656349
0            0               0         2.02012         18.2279         0.067352
0            0               0         2.03351         18.4952         0.0690621
0            0               0         2.03479         18.6794         0.0707453
0            0               0         2.03677         18.815         0.0723888
0            0               0         2.04708         18.9278         0.0739891
0            0               0         2.07201         19.0231         0.0755572
0            0               0         2.10308         19.1286         0.0771105
0            0               0         2.1265         19.2846         0.0786604
0            0               0         2.13917         19.5112         0.0802055
0            0               0         2.14253         19.6506         0.0817312
0            0               0         2.14184         19.766         0.0832238
0            0               0         2.14161         19.8328         0.0846705
0            0               0         2.14303         19.8555         0.0860611
0            0               0         2.15251         19.847         0.0873986
0            0               0         2.17243         19.8184         0.0886943
0            0               0         2.19813         19.8113         0.0899687
0            0               0         2.22231         19.9158         0.091248
0            0               0         2.23651         20.0952         0.092545
0            0               0         2.2374         20.3125         0.0938478
0            0               0         2.23458         20.4964         0.0951338
0            0               0         2.24206         20.5083         0.0963914
0            0               0         2.26076         20.4831         0.0976343
0            0               0         2.28184         20.5943         0.0988892
0            0               0         2.29717         20.7543         0.100166
0            0               0         2.3055         20.876         0.101461
0            0               0         2.30783         20.889         0.102767
0            0               0         2.30927         21.0287         0.104084
0            0               0         2.31234         21.0433         0.105407
0            0               0         2.31932         20.9746         0.106746
0            0               0         2.33029         20.938         0.108116
0            0               0         2.3382         20.979         0.109524
0            0               0         2.33773         21.0436         0.110967
0            0               0         2.33203         21.0382         0.112432
0            0               0         2.32891         21.1236         0.113912
0            0               0         2.33043         21.1627         0.115406
0            0               0         2.33304         21.2204         0.116918
0            0               0         2.33494         21.3428         0.118442
0            0               0         2.34006         21.3697         0.119969
0            0               0         2.35319         21.4205         0.121499
0            0               0         2.36646         21.538         0.12304
0            0               0         2.37449         21.6176         0.124592
0            0               0         2.37975         21.6386         0.126148
0            0               0         2.37961         21.6827         0.127706
0            0               0         2.36942         21.7353         0.129262
0            0               0         2.35806         21.8953         0.130803
0            0               0         2.35506         21.9624         0.132331
0            0               0         2.3602         21.9636         0.133854
0            0               0         2.37551         21.932         0.135393
0            0               0         2.39823         21.8526         0.136983
0            0               0         2.41923         21.8512         0.138663
0            0               0         2.4289         22.0265         0.140449
0            0               0         2.42605         22.1287         0.142325
0            0               0         2.42654         22.1416         0.144293
0            0               0         2.43784         22.0882         0.146362
0            0               0         2.45186         22.1163         0.148552
0            0               0         2.4497         22.1848         0.150866
0            0               0         2.42343         22.2531         0.153278
0            0               0         2.38918         22.3098         0.155753
0            0               0         2.36759         22.3781         0.15826
0            0               0         2.36523         22.4001         0.160787
0            0               0         2.37446         22.4413         0.163336
0            0               0         2.38749         22.5         0.165913
0            0               0         2.39635         22.5295         0.168514
0            0               0         2.39773         22.5384         0.171134
0            0               0         2.39466         22.5674         0.173769
0            0               0         2.38739         22.6603         0.176416
0            0               0         2.37832         22.7203         0.179064
0            0               0         2.37449         22.8531         0.181717
0            0               0         2.37428         23.0488         0.184381
0            0               0         2.37248         23.1678         0.18706
0            0               0         2.37347         23.1667         0.189758
0            0               0         2.38181         23.1132         0.192481
0            0               0         2.39721         23.0162         0.195238
0            0               0         2.4122         23.0211         0.198049
0            0               0         2.42238         23.012         0.200922
0            0               0         2.43001         23.0782         0.203855
0            0               0         2.42775         23.1831         0.206833
0            0               0         2.41657         23.3002         0.209843
0            0               0         2.40228         23.4097         0.212877
0            0               0         2.38547         23.3713         0.215925
0            0               0         2.37657         23.3783         0.218982
0            0               0         2.38039         23.355         0.222051
0            0               0         2.3902         23.4045         0.22514
0            0               0         2.3983         23.4419         0.228258
0            0               0         2.4046         23.5279         0.231421
0            0               0         2.41304         23.5893         0.234645
0            0               0         2.42087         23.571         0.237933
0            0               0         2.42161         23.5235         0.241278
0            0               0         2.41662         23.3794         0.244674
0            0               0         2.41276         23.3492         0.248124
0            0               0         2.41133         23.4326         0.251613
0            0               0         2.40783         23.4842         0.255118
0            0               0         2.4022         23.5619         0.258612
0            0               0         2.39689         23.6335         0.262075
0            0               0         2.39959         23.6027         0.265496
0            0               0         2.41669         23.5441         0.268906
0            0               0         2.43616         23.5401         0.272337
0            0               0         2.44406         23.5639         0.275819
0            0               0         2.44475         23.5593         0.279361
0            0               0         2.4435         23.665         0.282956
0            0               0         2.43771         23.7469         0.286612
0            0               0         2.43737         23.8111         0.290329
0            0               0         2.45223         23.8607         0.29411
0            0               0         2.47347         23.928         0.29796
0            0               0         2.49038         23.8358         0.301872
0            0               0         2.5015         23.7744         0.305872
0            0               0         2.4973         23.7956         0.30999
0            0               0         2.4767         23.9042         0.314202
0            0               0         2.45323         23.9022         0.318471
0            0               0         2.44379         23.8009         0.32278
0            0               0         2.45386         23.82         0.327139
0            0               0         2.46646         23.8657         0.331565
0            0               0         2.47101         23.8307         0.336049
0            0               0         2.47124         23.8761         0.340593
0            0               0         2.47036         23.912         0.345198
0            0               0         2.46573         23.8918         0.349862
0            0               0         2.45693         23.9107         0.354587
0            0               0         2.44861         24.0159         0.359376
0            0               0         2.43852         24.1506         0.36422
0            0               0         2.43184         24.2569         0.36909
0            0               0         2.43002         24.3948         0.373988
0            0               0         2.42093         24.4975         0.378895
0            0               0         2.40814         24.583         0.383798
0            0               0         2.4092         24.6465         0.388702
0            0               0         2.43177         24.6054         0.393605
0            0               0         2.46845         24.4573         0.398531
0            0               0         2.50273         24.3805         0.40351
0            0               0         2.52232         24.3103         0.408534
0            0               0         2.52531         24.309         0.413599
0            0               0         2.51511         24.3061         0.418693
0            0               0         2.50039         24.1942         0.423751
0            0               0         2.49339         24.1251         0.428742
0            0               0         2.49926         24.1582         0.433688
0            0               0         2.51059         24.1912         0.438615
0            0               0         2.52066         24.197         0.443515
0            0               0         2.52761         24.2162         0.448396
0            0               0         2.52586         24.3146         0.45327
0            0               0         2.5107         24.4507         0.458121
0            0               0         2.48557         24.4745         0.46293
0            0               0         2.45959         24.4862         0.467681
0            0               0         2.44231         24.4161         0.472399
0            0               0         2.43693         24.3896         0.477152
0            0               0         2.44031         24.3287         0.481995
0            0               0         2.44968         24.2414         0.486983
0            0               0         2.46526         24.2573         0.492141
0            0               0         2.48156         24.3082         0.497462
0            0               0         2.49039         24.4127         0.502909
0            0               0         2.49304         24.5506         0.508449
0            0               0         2.49874         24.5638         0.514032
0            0               0         2.51249         24.5005         0.519616
0            0               0         2.52572         24.4299         0.525172
0            0               0         2.52967         24.3198         0.530666
0            0               0         2.52576         24.2091         0.536073
0            0               0         2.51649         24.0836         0.541339
0            0               0         2.50476         23.8966         0.546432
0            0               0         2.49632         23.7501         0.551361
0            0               0         2.48641         23.7643         0.55616
0            0               0         2.47399         23.9374         0.560898
0            0               0         2.47027         24.0377         0.565649
0            0               0         2.47913         24.0728         0.570467
0            0               0         2.49084         24.2373         0.575397
0            0               0         2.49247         24.4427         0.580431
0            0               0         2.48631         24.5151         0.585579
0            0               0         2.47938         24.4952         0.590849
0            0               0         2.47463         24.3804         0.596243
6837.23            -9704.17               -2866.93         2.47339         24.3476         0.601763
6199.92            -9735.12               -3535.2         2.22566         23.9895         0.607002
5718.64            -9787.56               -4068.92         2.0182         23.5985         0.611805
5369.07            -9884.68               -4515.62         1.86154         23.1279         0.616098
5123.07            -9990.41               -4867.35         1.74774         22.6621         0.619841
4947.35            -10110.3               -5162.97         1.66767         22.1906         0.623055
4793.69            -10210.5               -5416.8         1.61047         21.7931         0.625794
4634.75            -10280.9               -5646.16         1.56045         21.4841         0.628097
4455.68            -10373.6               -5917.88         1.50871         21.1331         0.630012
4249.23            -10446.8               -6197.58         1.45042         20.8313         0.631596
4038.76            -10509.9               -6471.13         1.38321         20.548         0.632879
3857.23            -10597.1               -6739.9         1.3147         20.2035         0.633885
3722.85            -10697.3               -6974.43         1.25561         19.8339         0.634642
3621.42            -10801.6               -7180.22         1.21186         19.4673         0.635192
3531.93            -10947.7               -7415.74         1.17885         19.0142         0.635586
3436.06            -11097.9               -7661.8         1.14972         18.5615         0.635876
3318.39            -11233.6               -7915.25         1.11851         18.1496         0.636107
3182.95            -11351.8               -8168.87         1.08021         17.7801         0.636316
3040.86            -11463.4               -8422.49         1.03612         17.426         0.636521
2902.23            -11554.5               -8652.27         0.989865         17.1208         0.636728
2773.64            -11647.9               -8874.27         0.944736         16.8121         0.636922
2651.38            -11731               -9079.66         0.902878         16.531         0.637086
2538.06            -11801.7               -9263.64         0.863081         16.2815         0.637219
2437.12            -11883.9               -9446.81         0.826191         16.0077         0.637319
2343.37            -11961.5               -9618.17         0.793333         15.7498         0.637392
2250.15            -12056.2               -9806.06         0.762816         15.4555         0.637443
2151.55            -12156.2               -10004.6         0.73247         15.1512         0.63748
2049.14            -12241               -10191.9         0.700376         14.8831         0.637512
1953.47            -12332.8               -10379.3         0.667039         14.5986         0.637543
1871.19            -12421.7               -10550.5         0.635896         14.3243         0.637577
1798.94            -12508.5               -10709.5         0.60911         14.0613         0.637623
1728.62            -12598.4               -10869.8         0.585591         13.7971         0.637691
1653.34            -12683.9               -11030.6         0.562701         13.548         0.637791
1571.04            -12756.5               -11185.5         0.538198         13.3312         0.637913
1489.55            -12819.2               -11329.6         0.511405         13.1373         0.638043
1419.43            -12888               -11468.5         0.484879         12.9289         0.638165
1363.56            -12959.6               -11596         0.462054         12.7161         0.638263
1316.97            -13036.5               -11719.5         0.443869         12.494         0.638332
1271.06            -13114               -11843         0.428702         12.2731         0.638376
1218.57            -13185.4               -11966.9         0.413756         12.0672         0.638407
1158.37            -13249.8               -12091.4         0.396669         11.8767         0.638438
1096.38            -13306.4               -12210         0.377074         11.7025         0.638477
1040.87            -13357.6               -12316.7         0.356893         11.5403         0.638525
998.204            -13412               -12413.7         0.338824         11.3719         0.638582
967.013            -13473.9               -12506.9         0.324936         11.1895         0.638648
939.446            -13540.1               -12600.6         0.314783         11.0015         0.638721
907.879            -13601.6               -12693.7         0.305809         10.8273         0.638799
870.508            -13655.9               -12785.4         0.295534         10.6708         0.63888
829.531            -13701.3               -12871.8         0.283369         10.5357         0.638958
788.656            -13740.5               -12951.9         0.27003         10.4156         0.639029
751.847            -13778.3               -13026.5         0.256724         10.2995         0.639087
720.807            -13818.5               -13097.7         0.244742         10.1791         0.639135
694.487            -13860.7               -13166.2         0.234638         10.056         0.639176
670.056            -13904.5               -13234.4         0.22607         9.93076         0.639222
644.417            -13944.1               -13299.7         0.218117         9.81644         0.639282
616.706            -13978.5               -13361.8         0.209771         9.71488         0.639367
588.849            -14010.7               -13421.8         0.200751         9.61833         0.639483
563.754            -14042.1               -13478.4         0.191683         9.52344         0.639633
542.982            -14075.7               -13532.7         0.183514         9.42452         0.639818
525.517            -14111               -13585.5         0.176752         9.32284         0.640038
509.42            -14145.6               -13636.2         0.171067         9.22403         0.640291
493.866            -14179.5               -13685.7         0.165827         9.12723         0.640574
478.963            -14212               -13733.1         0.160764         9.03432         0.64088
464.79            -14243.4               -13778.6         0.155913         8.94478         0.641201
450.939            -14273.7               -13822.7         0.151299         8.8586         0.64153
436.899            -14302               -13865.1         0.14679         8.77804         0.641863
422.428            -14328.7               -13906.3         0.14222         8.70244         0.642194
407.544            -14353.3               -13945.8         0.137509         8.63262         0.642521
392.489            -14376               -13983.5         0.132664         8.56789         0.642844
377.59            -14397.3               -14019.7         0.127763         8.50724         0.643163
363.161            -14417.4               -14054.2         0.122913         8.44967         0.643479
349.475            -14436.7               -14087.2         0.118217         8.39424         0.643794
336.792            -14455.5               -14118.7         0.113761         8.33992         0.644113
325.412            -14474.4               -14149         0.109633         8.28563         0.64444
315.599            -14493.8               -14178.2         0.105928         8.23032         0.644783
307.369            -14513.8               -14206.5         0.102734         8.17357         0.645147
300.316            -14534.3               -14234         0.100055         8.11613         0.645539
293.679            -14554.4               -14260.7         0.0977592         8.05982         0.645964
286.635            -14573.3               -14286.7         0.0955988         8.00663         0.646425
278.654            -14590.4               -14311.8         0.0933056         7.95798         0.646923
269.76            -14605.6               -14335.8         0.0907075         7.91397         0.647454
260.542            -14619.4               -14358.8         0.0878126         7.87313         0.648011
251.835            -14632.7               -14380.9         0.0848119         7.83333         0.648588
244.272            -14646.4               -14402.1         0.0819775         7.79288         0.649175
238.013            -14660.6               -14422.6         0.0795156         7.75121         0.649765
232.803            -14675.4               -14442.6         0.0774781         7.70876         0.65035
228.234            -14690.2               -14462         0.0757824         7.66639         0.650924
223.938            -14704.8               -14480.9         0.0742948         7.6249         0.651482
219.623            -14719               -14499.3         0.0728966         7.5849         0.652022
215.028            -14732.3               -14517.3         0.0714918         7.54702         0.652543
209.994            -14744.7               -14534.7         0.069996         7.51158         0.653044
204.6            -14756               -14551.4         0.0683576         7.47837         0.653526
199.179            -14766.8               -14567.6         0.0666015         7.44641         0.653992
194.154            -14777.3               -14583.2         0.064837         7.41464         0.654443
189.769            -14788.1               -14598.3         0.063201         7.38238         0.654881
185.963            -14799               -14613.1         0.0617739         7.34984         0.655308
182.451            -14809.8               -14627.4         0.060535         7.31781         0.655725
178.954            -14820.2               -14641.3         0.0593915         7.28701         0.656133
175.374            -14830.2               -14654.8         0.0582534         7.25775         0.656535
171.774            -14839.7               -14667.9         0.057088         7.2299         0.65693
168.249            -14848.9               -14680.7         0.0559161         7.20329         0.657321
164.807            -14857.8               -14693         0.0547685         7.17785         0.657707
161.366            -14866.4               -14705         0.0536482         7.15376         0.658089
157.834            -14874.5               -14716.6         0.052528         7.1312         0.658465
154.21            -14882               -14727.8         0.0513781         7.11007         0.658834
150.623            -14889.3               -14738.6         0.0501985         7.08991         0.659193
147.275            -14896.3               -14749         0.049031         7.07007         0.659541
144.333            -14903.5               -14759.1         0.0479412         7.04996         0.659875
141.845            -14910.8               -14768.9         0.0469835         7.0293         0.660194
139.733            -14918.2               -14778.5         0.0461735         7.00812         0.660497
137.859            -14925.7               -14787.9         0.045486         6.98662         0.660784
136.114            -14933.1               -14797         0.0448761         6.96505         0.661058
134.469            -14940.4               -14806         0.044308         6.94344         0.661319
132.963            -14947.7               -14814.7         0.0437726         6.92175         0.661573
131.636            -14955               -14823.4         0.0432821         6.89995         0.661824
130.472            -14962.4               -14831.9         0.0428501         6.8782         0.662077
129.381            -14969.7               -14840.3         0.0424713         6.85686         0.662338
128.243            -14976.8               -14848.6         0.0421162         6.8363         0.662611
126.986            -14983.7               -14856.7         0.0417458         6.81681         0.662901
125.632            -14990.3               -14864.7         0.0413364         6.79833         0.663208
124.279            -14996.8               -14872.5         0.0408957         6.78064         0.663533
123.03            -15003.2               -14880.2         0.0404554         6.76338         0.663875
121.937            -15009.7               -14887.8         0.0400489         6.74632         0.664229
120.983            -15016.2               -14895.2         0.039693         6.72934         0.664592
120.107            -15022.7               -14902.6         0.0393824         6.71248         0.664958
119.238            -15029.1               -14909.8         0.0390973         6.69579         0.665322
118.318            -15035.3               -14917         0.0388145         6.67929         0.66568
117.316            -15041.4               -14924.1         0.038515         6.66302         0.666027
116.235            -15047.3               -14931         0.0381889         6.64697         0.666359
115.103            -15053               -14937.9         0.0378368         6.63105         0.666676
113.972            -15058.6               -14944.6         0.0374686         6.61513         0.666976
112.892            -15064.1               -14951.2         0.0371004         6.59915         0.667261
111.896            -15069.5               -14957.6         0.0367486         6.58306         0.667534
110.99            -15075               -14964         0.0364245         6.56691         0.667799
110.142            -15080.4               -14970.3         0.0361295         6.55084         0.66806
109.296            -15085.8               -14976.5         0.0358535         6.53504         0.668324
108.386            -15091               -14982.6         0.0355781         6.51978         0.668593
107.364            -15095.9               -14988.5         0.035282         6.50521         0.668873
106.217            -15100.6               -14994.4         0.0349492         6.49141         0.669167
104.976            -15105.1               -15000.1         0.0345758         6.47833         0.669475
103.704            -15109.4               -15005.7         0.034172         6.46578         0.669799
102.468            -15113.7               -15011.2         0.0337577         6.45356         0.670139
101.322            -15117.9               -15016.5         0.0333553         6.44152         0.670492
100.298            -15122.1               -15021.8         0.0329823         6.42948         0.670856
99.4143            -15126.3               -15026.9         0.0326492         6.41735         0.67123
98.6778            -15130.6               -15031.9         0.0323614         6.40504         0.671609
98.0848            -15135               -15036.9         0.0321217         6.39251         0.671991
97.6113            -15139.4               -15041.8         0.0319286         6.37978         0.672376
97.2127            -15143.8               -15046.6         0.0317745         6.36695         0.67276
96.8375            -15148.3               -15051.4         0.0316448         6.35412         0.673144
96.4447            -15152.7               -15056.2         0.0315226         6.34141         0.673528
96.013            -15157               -15061         0.0313948         6.32891         0.673912
95.54            -15161.2               -15065.6         0.0312542         6.31664         0.674297
95.0325            -15165.3               -15070.2         0.0311003         6.30464         0.674684
94.4982            -15169.3               -15074.8         0.0309351         6.2929         0.675074
93.9457            -15173.3               -15079.3         0.0307611         6.28144         0.675468
93.3926            -15177.1               -15083.8         0.0305813         6.27025         0.675867
92.8703            -15181               -15088.1         0.0304013         6.25923         0.676271
92.4177            -15184.9               -15092.5         0.0302312         6.24827         0.676679
92.0627            -15188.8               -15096.8         0.0300839         6.23729         0.677093
91.7987            -15192.8               -15101         0.0299683         6.22628         0.677511
91.5789            -15196.9               -15105.3         0.0298824         6.21532         0.677933
91.3293            -15200.8               -15109.5         0.0298108         6.20458         0.678358
90.9798            -15204.7               -15113.7         0.0297296         6.1942         0.678785
90.4981            -15208.3               -15117.8         0.0296158         6.18427         0.679213
89.9051            -15211.8               -15121.9         0.029459         6.17474         0.679642
89.265            -15215.2               -15125.9         0.029266         6.16546         0.68007
88.6512            -15218.5               -15129.8         0.0290576         6.15623         0.680497
88.1087            -15221.8               -15133.7         0.0288578         6.14694         0.680923
87.6345            -15225.2               -15137.5         0.0286812         6.13761         0.681346
87.1841            -15228.5               -15141.3         0.0285269         6.12831         0.681767
86.7019            -15231.7               -15145         0.0283802         6.11919         0.682186
86.1575            -15234.9               -15148.7         0.0282233         6.11031         0.682603
85.5655            -15237.9               -15152.3         0.0280461         6.10164         0.683018
84.981            -15240.9               -15155.9         0.0278534         6.09305         0.683432
84.4697            -15243.8               -15159.4         0.0276631         6.08438         0.683844
84.0715            -15246.9               -15162.8         0.0274966         6.07554         0.684255
83.7787            -15250               -15166.2         0.027367         6.06654         0.684663
83.5377            -15253.1               -15169.6         0.0272717         6.05754         0.685069
83.2744            -15256.2               -15172.9         0.0271932         6.04871         0.685472
82.9299            -15259.2               -15176.3         0.0271075         6.0402         0.685871
82.4854            -15262               -15179.5         0.0269954         6.03209         0.686264
81.9679            -15264.7               -15182.7         0.0268507         6.02431         0.686651
81.4349            -15267.3               -15185.9         0.0266823         6.01671         0.68703
80.9491            -15269.9               -15189         0.0265088         6.00913         0.687402
80.5536            -15272.6               -15192.1         0.0263506         6.00144         0.687765
80.2588            -15275.4               -15195.1         0.0262219         5.99361         0.688119
80.0449            -15278.1               -15198.1         0.0261259         5.98568         0.688466
79.8731            -15281               -15201.1         0.0260563         5.97769         0.688807
79.7017            -15283.7               -15204         0.0260003         5.96975         0.689142
79.4987            -15286.5               -15207         0.0259446         5.96194         0.689474
79.249            -15289.1               -15209.9         0.0258785         5.95428         0.689804
78.9579            -15291.7               -15212.8         0.0257972         5.94678         0.690135
78.6495            -15294.3               -15215.6         0.0257024         5.9394         0.690468
78.3546            -15296.8               -15218.4         0.0256021         5.93207         0.690804
78.0978            -15299.3               -15221.2         0.0255061         5.92471         0.691145
77.89            -15301.9               -15224         0.0254225         5.91728         0.69149
77.7252            -15304.5               -15226.8         0.0253548         5.90981         0.691841
77.587            -15307.1               -15229.5         0.0253012         5.90232         0.692196
77.4571            -15309.7               -15232.2         0.0252562         5.89483         0.692555
